         T[MeV]          pi_BW           K_BW         K0S_BW         phi_BW           p_BW      Lambda_BW        Ksi-_BW       Omega_BW         pi_eBW          K_eBW        K0S_eBW        phi_eBW          p_eBW     Lambda_eBW       Ksi-_eBW      Omega_eBW
      20.000000       1.000000       1.000000       1.000000       1.000000       1.000110       1.000015       1.000000       1.000000       1.000004       1.000002       1.000002       1.000000       1.000015       1.000009       1.000000       1.000000
      21.000000       1.000000       1.000000       1.000000       1.000000       1.000163       1.000025       1.000000       1.000000       1.000006       1.000002       1.000003       1.000000       1.000024       1.000013       1.000000       1.000000
      22.000000       1.000000       1.000000       1.000000       1.000000       1.000233       1.000038       1.000000       1.000000       1.000009       1.000004       1.000004       1.000000       1.000035       1.000017       1.000000       1.000000
      23.000000       1.000000       1.000000       1.000001       1.000000       1.000324       1.000057       1.000000       1.000000       1.000014       1.000006       1.000006       1.000000       1.000050       1.000023       1.000000       1.000000
      24.000000       1.000000       1.000001       1.000001       1.000000       1.000438       1.000082       1.000000       1.000000       1.000019       1.000008       1.000008       1.000000       1.000070       1.000029       1.000001       1.000000
      25.000000       1.000000       1.000001       1.000002       1.000000       1.000579       1.000115       1.000000       1.000000       1.000027       1.000011       1.000012       1.000000       1.000094       1.000034       1.000001       1.000000
      26.000000       1.000001       1.000002       1.000003       1.000000       1.000750       1.000155       1.000000       1.000000       1.000037       1.000016       1.000017       1.000000       1.000123       1.000038       1.000001       1.000000
      27.000000       1.000001       1.000003       1.000004       1.000000       1.000953       1.000205       1.000000       1.000000       1.000049       1.000021       1.000022       1.000000       1.000157       1.000040       1.000001       1.000000
      28.000000       1.000002       1.000005       1.000006       1.000000       1.001190       1.000265       1.000001       1.000000       1.000064       1.000028       1.000030       1.000000       1.000195       1.000038       1.000002       1.000000
      29.000000       1.000003       1.000007       1.000009       1.000000       1.001464       1.000335       1.000001       1.000000       1.000083       1.000037       1.000039       1.000000       1.000238       1.000030       1.000002       1.000000
      30.000000       1.000005       1.000011       1.000013       1.000000       1.001777       1.000417       1.000001       1.000000       1.000106       1.000047       1.000050       1.000000       1.000284       1.000015       1.000003       1.000000
      31.000000       1.000008       1.000015       1.000018       1.000000       1.002129       1.000510       1.000002       1.000000       1.000133       1.000060       1.000063       1.000000       1.000332       0.999990       1.000004       1.000000
      32.000000       1.000011       1.000020       1.000024       1.000000       1.002521       1.000615       1.000002       1.000000       1.000166       1.000075       1.000079       1.000000       1.000381       0.999954       1.000004       1.000000
      33.000000       1.000016       1.000027       1.000032       1.000000       1.002953       1.000731       1.000003       1.000000       1.000205       1.000092       1.000097       1.000000       1.000430       0.999904       1.000005       1.000000
      34.000000       1.000023       1.000036       1.000042       1.000000       1.003426       1.000859       1.000004       1.000000       1.000250       1.000112       1.000118       1.000000       1.000477       0.999838       1.000005       1.000000
      35.000000       1.000031       1.000046       1.000054       1.000000       1.003939       1.000998       1.000005       1.000000       1.000302       1.000136       1.000143       1.000000       1.000518       0.999753       1.000006       1.000000
      36.000000       1.000042       1.000059       1.000068       1.000000       1.004491       1.001148       1.000006       1.000000       1.000362       1.000162       1.000170       1.000000       1.000554       0.999648       1.000006       1.000000
      37.000000       1.000055       1.000074       1.000085       1.000000       1.005081       1.001309       1.000008       1.000000       1.000432       1.000192       1.000201       1.000000       1.000579       0.999519       1.000006       1.000000
      38.000000       1.000072       1.000092       1.000105       1.000000       1.005708       1.001480       1.000010       1.000000       1.000510       1.000225       1.000235       1.000000       1.000594       0.999365       1.000006       1.000000
      39.000000       1.000094       1.000112       1.000128       1.000000       1.006370       1.001660       1.000012       1.000000       1.000599       1.000262       1.000273       1.000000       1.000593       0.999184       1.000005       1.000000
      40.000000       1.000119       1.000136       1.000154       1.000000       1.007065       1.001848       1.000014       1.000000       1.000700       1.000302       1.000314       1.000000       1.000576       0.998974       1.000004       1.000000
      41.000000       1.000151       1.000163       1.000184       1.000000       1.007792       1.002045       1.000017       1.000000       1.000813       1.000345       1.000358       1.000000       1.000539       0.998734       1.000002       1.000000
      42.000000       1.000188       1.000194       1.000218       1.000000       1.008548       1.002249       1.000019       1.000000       1.000938       1.000392       1.000406       1.000000       1.000479       0.998461       0.999999       1.000000
      43.000000       1.000232       1.000228       1.000256       1.000000       1.009331       1.002459       1.000023       1.000000       1.001078       1.000442       1.000457       1.000000       1.000395       0.998155       0.999995       1.000000
      44.000000       1.000284       1.000266       1.000298       1.000000       1.010138       1.002675       1.000026       1.000000       1.001232       1.000495       1.000511       1.000000       1.000283       0.997815       0.999991       1.000000
      45.000000       1.000345       1.000308       1.000344       1.000000       1.010968       1.002897       1.000030       1.000000       1.001402       1.000551       1.000567       1.000000       1.000140       0.997440       0.999985       1.000000
      46.000000       1.000415       1.000354       1.000394       1.000000       1.011818       1.003122       1.000035       1.000000       1.001589       1.000610       1.000626       1.000000       0.999966       0.997028       0.999977       1.000000
      47.000000       1.000495       1.000404       1.000449       1.000000       1.012686       1.003352       1.000039       1.000000       1.001793       1.000671       1.000687       1.000000       0.999757       0.996581       0.999968       1.000000
      48.000000       1.000587       1.000459       1.000509       1.000000       1.013569       1.003585       1.000044       1.000000       1.002015       1.000734       1.000750       1.000000       0.999511       0.996097       0.999958       1.000000
      49.000000       1.000691       1.000518       1.000573       1.000000       1.014466       1.003820       1.000050       1.000000       1.002256       1.000799       1.000814       1.000000       0.999227       0.995578       0.999945       1.000000
      50.000000       1.000808       1.000581       1.000642       1.000000       1.015375       1.004058       1.000056       1.000000       1.002518       1.000866       1.000880       1.000000       0.998903       0.995022       0.999931       1.000000
      51.000000       1.000938       1.000649       1.000715       1.000000       1.016293       1.004297       1.000062       1.000000       1.002799       1.000934       1.000946       1.000000       0.998538       0.994430       0.999914       1.000000
      52.000000       1.001084       1.000721       1.000794       1.000000       1.017220       1.004537       1.000069       1.000000       1.003102       1.001003       1.001013       1.000000       0.998130       0.993804       0.999895       1.000000
      53.000000       1.001245       1.000798       1.000876       1.000000       1.018152       1.004778       1.000076       1.000000       1.003426       1.001072       1.001080       1.000000       0.997679       0.993143       0.999874       1.000000
      54.000000       1.001423       1.000879       1.000964       1.000000       1.019089       1.005020       1.000083       1.000000       1.003773       1.001141       1.001146       1.000000       0.997183       0.992449       0.999850       1.000000
      55.000000       1.001618       1.000965       1.001056       1.000000       1.020029       1.005261       1.000091       1.000000       1.004142       1.001210       1.001212       1.000000       0.996643       0.991722       0.999823       1.000000
      56.000000       1.001831       1.001055       1.001153       1.000000       1.020971       1.005503       1.000099       1.000000       1.004534       1.001279       1.001276       1.000000       0.996057       0.990964       0.999793       1.000000
      57.000000       1.002062       1.001149       1.001254       1.000000       1.021914       1.005744       1.000108       1.000000       1.004950       1.001346       1.001339       1.000000       0.995425       0.990176       0.999760       1.000000
      58.000000       1.002313       1.001248       1.001359       1.000000       1.022857       1.005984       1.000117       1.000000       1.005390       1.001411       1.001400       1.000000       0.994748       0.989359       0.999724       1.000000
      59.000000       1.002584       1.001351       1.001469       1.000000       1.023799       1.006223       1.000126       1.000000       1.005853       1.001475       1.001458       1.000000       0.994025       0.988514       0.999685       1.000000
      60.000000       1.002876       1.001458       1.001584       1.000000       1.024738       1.006462       1.000136       1.000000       1.006341       1.001537       1.001514       1.000000       0.993257       0.987643       0.999642       1.000000
      61.000000       1.003189       1.001569       1.001702       1.000000       1.025675       1.006700       1.000146       1.000000       1.006852       1.001596       1.001566       0.999999       0.992445       0.986748       0.999596       1.000000
      62.000000       1.003523       1.001684       1.001825       1.000000       1.026610       1.006936       1.000156       1.000000       1.007387       1.001652       1.001615       0.999999       0.991588       0.985829       0.999547       1.000000
      63.000000       1.003879       1.001803       1.001951       1.000000       1.027540       1.007172       1.000167       1.000000       1.007946       1.001705       1.001660       0.999999       0.990688       0.984889       0.999493       1.000000
      64.000000       1.004257       1.001927       1.002082       1.000000       1.028467       1.007406       1.000179       1.000000       1.008529       1.001754       1.001701       0.999999       0.989745       0.983928       0.999436       1.000000
      65.000000       1.004658       1.002053       1.002216       1.000000       1.029390       1.007639       1.000190       1.000000       1.009134       1.001799       1.001738       0.999998       0.988761       0.982948       0.999375       1.000000
      66.000000       1.005082       1.002184       1.002355       1.000000       1.030308       1.007870       1.000202       1.000000       1.009763       1.001841       1.001770       0.999998       0.987737       0.981951       0.999311       1.000000
      67.000000       1.005529       1.002318       1.002496       1.000000       1.031222       1.008101       1.000214       1.000000       1.010413       1.001878       1.001797       0.999997       0.986673       0.980938       0.999242       1.000000
      68.000000       1.005999       1.002456       1.002642       1.000000       1.032132       1.008330       1.000227       1.000000       1.011085       1.001910       1.001819       0.999997       0.985571       0.979911       0.999170       1.000000
      69.000000       1.006492       1.002597       1.002791       0.999999       1.033038       1.008557       1.000240       1.000000       1.011779       1.001937       1.001836       0.999996       0.984433       0.978871       0.999093       1.000000
      70.000000       1.007009       1.002742       1.002943       0.999999       1.033939       1.008784       1.000253       1.000000       1.012492       1.001960       1.001847       0.999995       0.983259       0.977819       0.999013       1.000000
      71.000000       1.007549       1.002890       1.003099       0.999999       1.034836       1.009009       1.000266       1.000000       1.013225       1.001977       1.001853       0.999994       0.982052       0.976757       0.998928       1.000000
      72.000000       1.008112       1.003041       1.003258       0.999998       1.035729       1.009233       1.000280       1.000000       1.013977       1.001989       1.001853       0.999993       0.980812       0.975687       0.998840       1.000000
      73.000000       1.008698       1.003195       1.003420       0.999998       1.036619       1.009456       1.000294       1.000000       1.014746       1.001995       1.001847       0.999992       0.979541       0.974608       0.998748       1.000000
      74.000000       1.009308       1.003352       1.003585       0.999997       1.037505       1.009678       1.000308       1.000000       1.015532       1.001995       1.001835       0.999990       0.978240       0.973524       0.998651       1.000000
      75.000000       1.009940       1.003512       1.003754       0.999996       1.038387       1.009899       1.000323       1.000000       1.016333       1.001990       1.001817       0.999988       0.976912       0.972434       0.998551       1.000000
      76.000000       1.010595       1.003675       1.003925       0.999995       1.039267       1.010118       1.000338       1.000000       1.017148       1.001979       1.001792       0.999986       0.975557       0.971340       0.998446       1.000000
      77.000000       1.011272       1.003841       1.004098       0.999994       1.040143       1.010336       1.000353       1.000000       1.017976       1.001962       1.001762       0.999983       0.974177       0.970243       0.998338       1.000000
      78.000000       1.011971       1.004010       1.004275       0.999993       1.041017       1.010554       1.000368       1.000000       1.018816       1.001939       1.001725       0.999981       0.972774       0.969144       0.998226       1.000000
      79.000000       1.012691       1.004181       1.004454       0.999991       1.041887       1.010770       1.000384       1.000000       1.019666       1.001909       1.001682       0.999977       0.971350       0.968044       0.998109       1.000000
      80.000000       1.013433       1.004355       1.004636       0.999989       1.042756       1.010985       1.000399       1.000000       1.020525       1.001874       1.001633       0.999974       0.969904       0.966944       0.997989       1.000000
      81.000000       1.014196       1.004531       1.004820       0.999987       1.043622       1.011199       1.000415       1.000000       1.021392       1.001832       1.001577       0.999969       0.968440       0.965845       0.997865       1.000000
      82.000000       1.014978       1.004710       1.005007       0.999984       1.044486       1.011411       1.000431       1.000000       1.022264       1.001784       1.001515       0.999965       0.966959       0.964748       0.997738       1.000000
      83.000000       1.015781       1.004891       1.005196       0.999982       1.045348       1.011623       1.000448       1.000000       1.023140       1.001730       1.001447       0.999959       0.965461       0.963653       0.997606       1.000000
      84.000000       1.016602       1.005074       1.005387       0.999978       1.046208       1.011833       1.000464       1.000000       1.024019       1.001669       1.001372       0.999953       0.963949       0.962562       0.997471       1.000000
      85.000000       1.017443       1.005260       1.005581       0.999975       1.047065       1.012042       1.000480       1.000000       1.024899       1.001602       1.001291       0.999946       0.962423       0.961475       0.997332       1.000000
      86.000000       1.018301       1.005447       1.005777       0.999971       1.047921       1.012250       1.000497       1.000000       1.025778       1.001529       1.001203       0.999939       0.960886       0.960392       0.997190       1.000000
      87.000000       1.019176       1.005637       1.005974       0.999966       1.048775       1.012456       1.000514       1.000000       1.026654       1.001449       1.001109       0.999930       0.959338       0.959314       0.997044       1.000000
      88.000000       1.020068       1.005829       1.006174       0.999961       1.049627       1.012662       1.000531       1.000000       1.027525       1.001363       1.001009       0.999921       0.957780       0.958243       0.996895       1.000000
      89.000000       1.020976       1.006022       1.006375       0.999955       1.050476       1.012865       1.000548       1.000000       1.028391       1.001271       1.000902       0.999911       0.956214       0.957177       0.996743       1.000000
      90.000000       1.021899       1.006217       1.006579       0.999949       1.051323       1.013068       1.000565       1.000000       1.029247       1.001172       1.000789       0.999899       0.954641       0.956119       0.996587       1.000000
      91.000000       1.022836       1.006415       1.006784       0.999942       1.052168       1.013268       1.000582       1.000000       1.030094       1.001067       1.000670       0.999887       0.953062       0.955067       0.996427       1.000000
      92.000000       1.023787       1.006613       1.006990       0.999934       1.053010       1.013467       1.000599       1.000000       1.030929       1.000955       1.000545       0.999873       0.951478       0.954024       0.996265       1.000000
      93.000000       1.024750       1.006814       1.007199       0.999925       1.053849       1.013665       1.000617       1.000000       1.031749       1.000837       1.000413       0.999858       0.949890       0.952988       0.996100       1.000000
      94.000000       1.025725       1.007016       1.007409       0.999916       1.054686       1.013861       1.000634       1.000000       1.032554       1.000713       1.000274       0.999841       0.948300       0.951961       0.995931       1.000000
      95.000000       1.026710       1.007219       1.007620       0.999905       1.055518       1.014055       1.000651       1.000000       1.033340       1.000582       1.000130       0.999823       0.946707       0.950943       0.995760       1.000000
      96.000000       1.027705       1.007423       1.007832       0.999894       1.056347       1.014247       1.000669       1.000000       1.034107       1.000445       0.999979       0.999804       0.945114       0.949934       0.995585       1.000000
      97.000000       1.028709       1.007629       1.008046       0.999881       1.057172       1.014437       1.000686       1.000000       1.034852       1.000301       0.999821       0.999782       0.943520       0.948934       0.995408       1.000000
      98.000000       1.029721       1.007836       1.008261       0.999868       1.057992       1.014625       1.000704       1.000000       1.035573       1.000150       0.999658       0.999759       0.941928       0.947943       0.995228       1.000000
      99.000000       1.030740       1.008044       1.008477       0.999853       1.058808       1.014812       1.000721       1.000000       1.036268       0.999993       0.999487       0.999734       0.940337       0.946963       0.995046       1.000000
     100.000000       1.031764       1.008253       1.008693       0.999837       1.059618       1.014995       1.000739       1.000000       1.036935       0.999829       0.999310       0.999707       0.938748       0.945992       0.994861       1.000000
     101.000000       1.032793       1.008463       1.008911       0.999820       1.060423       1.015177       1.000756       1.000000       1.037574       0.999659       0.999127       0.999678       0.937162       0.945032       0.994673       1.000000
     102.000000       1.033825       1.008674       1.009130       0.999802       1.061222       1.015356       1.000773       1.000000       1.038180       0.999482       0.998937       0.999647       0.935580       0.944081       0.994483       1.000000
     103.000000       1.034859       1.008885       1.009349       0.999782       1.062014       1.015533       1.000791       1.000000       1.038754       0.999298       0.998740       0.999613       0.934002       0.943142       0.994291       1.000000
     104.000000       1.035895       1.009097       1.009568       0.999761       1.062800       1.015708       1.000808       1.000000       1.039293       0.999107       0.998537       0.999577       0.932430       0.942212       0.994096       1.000000
     105.000000       1.036931       1.009309       1.009788       0.999738       1.063578       1.015880       1.000825       1.000000       1.039795       0.998910       0.998326       0.999538       0.930862       0.941294       0.993899       1.000000
     106.000000       1.037967       1.009522       1.010009       0.999713       1.064348       1.016049       1.000842       1.000000       1.040259       0.998705       0.998109       0.999497       0.929302       0.940386       0.993700       1.000000
     107.000000       1.038999       1.009734       1.010229       0.999687       1.065109       1.016216       1.000859       1.000000       1.040683       0.998494       0.997885       0.999453       0.927748       0.939488       0.993499       1.000000
     108.000000       1.040029       1.009947       1.010450       0.999659       1.065862       1.016380       1.000876       1.000000       1.041066       0.998275       0.997653       0.999405       0.926201       0.938602       0.993296       1.000000
     109.000000       1.041054       1.010160       1.010671       0.999629       1.066606       1.016541       1.000893       1.000000       1.041406       0.998050       0.997415       0.999355       0.924661       0.937726       0.993091       1.000000
     110.000000       1.042074       1.010373       1.010892       0.999597       1.067339       1.016699       1.000910       1.000000       1.041702       0.997817       0.997169       0.999302       0.923130       0.936862       0.992884       1.000000
     111.000000       1.043087       1.010586       1.011112       0.999563       1.068063       1.016854       1.000927       1.000000       1.041953       0.997577       0.996915       0.999245       0.921608       0.936008       0.992675       1.000000
     112.000000       1.044092       1.010798       1.011332       0.999527       1.068776       1.017006       1.000943       1.000000       1.042157       0.997329       0.996655       0.999185       0.920094       0.935165       0.992465       1.000000
     113.000000       1.045088       1.011010       1.011551       0.999489       1.069477       1.017155       1.000960       1.000000       1.042314       0.997074       0.996386       0.999121       0.918590       0.934332       0.992253       1.000000
     114.000000       1.046074       1.011221       1.011770       0.999449       1.070167       1.017301       1.000976       1.000000       1.042422       0.996812       0.996110       0.999054       0.917096       0.933511       0.992039       1.000000
     115.000000       1.047049       1.011432       1.011989       0.999407       1.070846       1.017444       1.000992       1.000000       1.042482       0.996542       0.995826       0.998982       0.915611       0.932700       0.991824       1.000000
     116.000000       1.048011       1.011641       1.012206       0.999362       1.071511       1.017583       1.001008       1.000000       1.042491       0.996264       0.995535       0.998907       0.914137       0.931900       0.991608       1.000000
     117.000000       1.048961       1.011850       1.012422       0.999315       1.072164       1.017719       1.001024       1.000000       1.042449       0.995979       0.995235       0.998828       0.912673       0.931111       0.991390       1.000000
     118.000000       1.049896       1.012058       1.012637       0.999265       1.072804       1.017852       1.001040       1.000000       1.042356       0.995686       0.994927       0.998744       0.911221       0.930333       0.991171       1.000000
     119.000000       1.050816       1.012264       1.012851       0.999213       1.073429       1.017982       1.001055       1.000000       1.042211       0.995385       0.994610       0.998656       0.909779       0.929565       0.990951       1.000000
     120.000000       1.051720       1.012469       1.013064       0.999158       1.074041       1.018108       1.001071       1.000000       1.042015       0.995076       0.994286       0.998564       0.908349       0.928808       0.990729       1.000000
     121.000000       1.052607       1.012673       1.013275       0.999100       1.074639       1.018230       1.001086       1.000000       1.041766       0.994760       0.993953       0.998467       0.906930       0.928061       0.990506       1.000000
     122.000000       1.053476       1.012875       1.013484       0.999040       1.075222       1.018350       1.001101       1.000000       1.041465       0.994435       0.993611       0.998365       0.905523       0.927325       0.990283       1.000000
     123.000000       1.054326       1.013075       1.013692       0.998976       1.075790       1.018465       1.001116       1.000000       1.041112       0.994102       0.993261       0.998259       0.904128       0.926598       0.990058       1.000000
     124.000000       1.055157       1.013273       1.013898       0.998910       1.076343       1.018578       1.001131       1.000000       1.040707       0.993761       0.992902       0.998147       0.902745       0.925883       0.989832       1.000000
     125.000000       1.055968       1.013469       1.014102       0.998841       1.076881       1.018686       1.001145       1.000000       1.040250       0.993412       0.992535       0.998030       0.901374       0.925177       0.989606       1.000000
     126.000000       1.056757       1.013664       1.014303       0.998769       1.077403       1.018792       1.001160       1.000000       1.039741       0.993054       0.992158       0.997908       0.900016       0.924482       0.989378       1.000000
     127.000000       1.057525       1.013856       1.014503       0.998694       1.077909       1.018893       1.001174       1.000000       1.039182       0.992689       0.991773       0.997781       0.898670       0.923796       0.989150       1.000000
     128.000000       1.058272       1.014045       1.014699       0.998615       1.078399       1.018991       1.001188       1.000000       1.038572       0.992315       0.991378       0.997648       0.897336       0.923121       0.988922       1.000000
     129.000000       1.058995       1.014232       1.014894       0.998534       1.078873       1.019086       1.001202       1.000000       1.037912       0.991933       0.990975       0.997509       0.896015       0.922455       0.988692       1.000000
     130.000000       1.059696       1.014417       1.015086       0.998449       1.079330       1.019177       1.001215       1.000000       1.037204       0.991542       0.990562       0.997365       0.894707       0.921799       0.988462       1.000000
     131.000000       1.060372       1.014598       1.015274       0.998360       1.079771       1.019264       1.001229       1.000000       1.036447       0.991144       0.990141       0.997215       0.893412       0.921153       0.988231       1.000000
     132.000000       1.061025       1.014777       1.015460       0.998269       1.080195       1.019348       1.001242       1.000000       1.035644       0.990737       0.989710       0.997058       0.892130       0.920516       0.988000       1.000000
     133.000000       1.061654       1.014953       1.015643       0.998174       1.080603       1.019429       1.001255       1.000000       1.034794       0.990321       0.989270       0.996896       0.890861       0.919889       0.987769       1.000000
     134.000000       1.062258       1.015125       1.015823       0.998075       1.080993       1.019506       1.001268       1.000000       1.033899       0.989898       0.988821       0.996728       0.889604       0.919271       0.987537       1.000000
     135.000000       1.062838       1.015295       1.016000       0.997973       1.081367       1.019579       1.001280       1.000000       1.032960       0.989466       0.988362       0.996553       0.888361       0.918662       0.987305       1.000000
     136.000000       1.063392       1.015461       1.016173       0.997867       1.081724       1.019649       1.001293       1.000000       1.031979       0.989026       0.987895       0.996372       0.887131       0.918063       0.987072       1.000000
     137.000000       1.063922       1.015624       1.016343       0.997758       1.082064       1.019715       1.001305       1.000000       1.030956       0.988578       0.987418       0.996184       0.885914       0.917472       0.986839       1.000000
     138.000000       1.064426       1.015783       1.016509       0.997645       1.082388       1.019778       1.001317       1.000000       1.029893       0.988122       0.986933       0.995990       0.884710       0.916891       0.986606       1.000000
     139.000000       1.064906       1.015939       1.016672       0.997528       1.082694       1.019837       1.001329       1.000000       1.028792       0.987658       0.986438       0.995789       0.883518       0.916318       0.986373       1.000000
     140.000000       1.065360       1.016091       1.016831       0.997408       1.082984       1.019893       1.001340       1.000000       1.027653       0.987186       0.985934       0.995581       0.882340       0.915754       0.986140       1.000000
     141.000000       1.065789       1.016239       1.016986       0.997284       1.083257       1.019946       1.001351       1.000000       1.026479       0.986707       0.985421       0.995367       0.881175       0.915199       0.985907       1.000000
     142.000000       1.066193       1.016383       1.017137       0.997156       1.083514       1.019995       1.001363       1.000000       1.025270       0.986219       0.984900       0.995145       0.880023       0.914652       0.985673       1.000000
     143.000000       1.066572       1.016523       1.017284       0.997024       1.083754       1.020041       1.001373       1.000000       1.024028       0.985724       0.984369       0.994916       0.878884       0.914114       0.985440       1.000000
     144.000000       1.066927       1.016660       1.017427       0.996888       1.083978       1.020084       1.001384       1.000000       1.022755       0.985221       0.983830       0.994681       0.877758       0.913584       0.985206       1.000000
     145.000000       1.067257       1.016792       1.017565       0.996748       1.084185       1.020123       1.001395       1.000000       1.021453       0.984711       0.983283       0.994438       0.876645       0.913063       0.984973       1.000000
     146.000000       1.067563       1.016920       1.017700       0.996605       1.084377       1.020159       1.001405       1.000000       1.020122       0.984194       0.982727       0.994187       0.875545       0.912549       0.984740       1.000000
     147.000000       1.067845       1.017043       1.017830       0.996457       1.084552       1.020192       1.001415       1.000000       1.018765       0.983669       0.982162       0.993930       0.874458       0.912044       0.984507       1.000000
     148.000000       1.068104       1.017163       1.017956       0.996306       1.084712       1.020222       1.001425       1.000000       1.017382       0.983138       0.981590       0.993665       0.873383       0.911546       0.984274       1.000000
     149.000000       1.068339       1.017278       1.018078       0.996150       1.084856       1.020249       1.001434       1.000000       1.015976       0.982599       0.981009       0.993392       0.872321       0.911056       0.984041       1.000000
     150.000000       1.068552       1.017388       1.018194       0.995991       1.084984       1.020273       1.001444       1.000000       1.014548       0.982054       0.980420       0.993112       0.871272       0.910574       0.983809       1.000000
     151.000000       1.068741       1.017494       1.018307       0.995827       1.085098       1.020293       1.001453       1.000000       1.013100       0.981502       0.979824       0.992825       0.870235       0.910100       0.983577       1.000000
     152.000000       1.068909       1.017596       1.018415       0.995660       1.085196       1.020311       1.001462       1.000000       1.011633       0.980944       0.979220       0.992529       0.869211       0.909633       0.983345       1.000000
     153.000000       1.069055       1.017693       1.018518       0.995488       1.085280       1.020326       1.001470       1.000000       1.010148       0.980379       0.978609       0.992227       0.868199       0.909174       0.983114       1.000000
     154.000000       1.069180       1.017785       1.018617       0.995313       1.085349       1.020337       1.001479       1.000000       1.008647       0.979809       0.977990       0.991916       0.867200       0.908722       0.982883       1.000000
     155.000000       1.069284       1.017873       1.018711       0.995133       1.085403       1.020346       1.001487       1.000000       1.007131       0.979233       0.977364       0.991598       0.866212       0.908278       0.982652       1.000000
     156.000000       1.069368       1.017956       1.018800       0.994950       1.085444       1.020352       1.001495       1.000000       1.005603       0.978651       0.976732       0.991272       0.865237       0.907840       0.982422       1.000000
     157.000000       1.069432       1.018035       1.018885       0.994762       1.085471       1.020356       1.001503       1.000000       1.004062       0.978063       0.976093       0.990938       0.864275       0.907410       0.982193       1.000000
     158.000000       1.069476       1.018109       1.018964       0.994570       1.085484       1.020357       1.001511       1.000000       1.002511       0.977471       0.975447       0.990597       0.863324       0.906986       0.981964       1.000000
     159.000000       1.069502       1.018178       1.019040       0.994375       1.085483       1.020355       1.001518       1.000000       1.000951       0.976873       0.974795       0.990247       0.862385       0.906570       0.981735       1.000000
     160.000000       1.069510       1.018242       1.019110       0.994175       1.085470       1.020350       1.001526       1.000000       0.999383       0.976270       0.974137       0.989890       0.861458       0.906160       0.981507       1.000000
     161.000000       1.069499       1.018302       1.019176       0.993972       1.085444       1.020343       1.001533       1.000000       0.997808       0.975663       0.973474       0.989525       0.860542       0.905757       0.981279       1.000000
     162.000000       1.069472       1.018357       1.019237       0.993764       1.085405       1.020333       1.001540       1.000000       0.996228       0.975051       0.972805       0.989153       0.859638       0.905360       0.981052       1.000000
     163.000000       1.069427       1.018408       1.019293       0.993553       1.085354       1.020321       1.001546       1.000000       0.994643       0.974436       0.972130       0.988772       0.858746       0.904970       0.980826       1.000000
     164.000000       1.069367       1.018454       1.019345       0.993338       1.085291       1.020307       1.001553       1.000000       0.993055       0.973816       0.971451       0.988384       0.857865       0.904587       0.980601       1.000000
     165.000000       1.069290       1.018495       1.019391       0.993118       1.085216       1.020290       1.001559       1.000000       0.991465       0.973192       0.970766       0.987988       0.856996       0.904210       0.980376       1.000000
     166.000000       1.069199       1.018531       1.019434       0.992895       1.085130       1.020271       1.001565       1.000000       0.989874       0.972565       0.970077       0.987584       0.856138       0.903839       0.980151       1.000000
     167.000000       1.069093       1.018563       1.019471       0.992668       1.085032       1.020249       1.001571       1.000000       0.988283       0.971934       0.969384       0.987172       0.855291       0.903474       0.979928       1.000000
     168.000000       1.068972       1.018591       1.019504       0.992438       1.084924       1.020226       1.001577       1.000000       0.986692       0.971301       0.968687       0.986753       0.854455       0.903116       0.979705       1.000000
     169.000000       1.068838       1.018614       1.019533       0.992203       1.084805       1.020200       1.001582       1.000000       0.985103       0.970664       0.967986       0.986326       0.853629       0.902763       0.979483       1.000000
     170.000000       1.068691       1.018632       1.019556       0.991965       1.084675       1.020172       1.001587       1.000000       0.983517       0.970025       0.967281       0.985891       0.852815       0.902417       0.979262       1.000000
     171.000000       1.068531       1.018646       1.019576       0.991723       1.084535       1.020142       1.001593       1.000000       0.981934       0.969383       0.966573       0.985449       0.852011       0.902076       0.979041       1.000000
     172.000000       1.068359       1.018656       1.019591       0.991478       1.084386       1.020110       1.001597       1.000000       0.980356       0.968740       0.965861       0.984999       0.851218       0.901741       0.978822       1.000000
     173.000000       1.068175       1.018661       1.019601       0.991229       1.084226       1.020077       1.001602       1.000000       0.978782       0.968094       0.965147       0.984541       0.850436       0.901412       0.978603       1.000000
     174.000000       1.067980       1.018662       1.019607       0.990976       1.084058       1.020041       1.001607       1.000000       0.977214       0.967447       0.964430       0.984077       0.849664       0.901088       0.978385       1.000000
     175.000000       1.067774       1.018658       1.019609       0.990720       1.083880       1.020003       1.001611       1.000000       0.975653       0.966798       0.963711       0.983605       0.848902       0.900770       0.978168       1.000000
     176.000000       1.067557       1.018651       1.019606       0.990461       1.083694       1.019964       1.001615       1.000000       0.974098       0.966147       0.962990       0.983125       0.848150       0.900458       0.977952       1.000000
     177.000000       1.067331       1.018639       1.019600       0.990198       1.083499       1.019922       1.001619       1.000000       0.972551       0.965496       0.962267       0.982638       0.847408       0.900150       0.977736       1.000000
     178.000000       1.067096       1.018623       1.019589       0.989932       1.083296       1.019880       1.001623       1.000000       0.971012       0.964843       0.961542       0.982144       0.846676       0.899849       0.977522       1.000000
     179.000000       1.066851       1.018603       1.019574       0.989662       1.083085       1.019835       1.001627       1.000000       0.969482       0.964191       0.960816       0.981643       0.845955       0.899552       0.977308       1.000000
     180.000000       1.066598       1.018579       1.019555       0.989390       1.082866       1.019789       1.001630       1.000000       0.967961       0.963537       0.960089       0.981135       0.845242       0.899261       0.977096       1.000000
     181.000000       1.066337       1.018551       1.019532       0.989114       1.082639       1.019741       1.001634       1.000000       0.966449       0.962884       0.959361       0.980621       0.844540       0.898974       0.976884       1.000000
     182.000000       1.066068       1.018520       1.019505       0.988835       1.082405       1.019692       1.001637       1.000000       0.964948       0.962230       0.958632       0.980099       0.843847       0.898693       0.976674       1.000000
     183.000000       1.065791       1.018484       1.019475       0.988553       1.082164       1.019641       1.001640       1.000000       0.963457       0.961576       0.957903       0.979570       0.843163       0.898416       0.976464       1.000000
     184.000000       1.065507       1.018445       1.019440       0.988268       1.081917       1.019588       1.001642       1.000000       0.961977       0.960923       0.957174       0.979035       0.842488       0.898145       0.976255       1.000000
     185.000000       1.065217       1.018402       1.019402       0.987981       1.081662       1.019535       1.001645       1.000000       0.960508       0.960271       0.956444       0.978493       0.841823       0.897878       0.976048       1.000000
     186.000000       1.064921       1.018355       1.019360       0.987690       1.081402       1.019480       1.001648       1.000000       0.959050       0.959619       0.955715       0.977945       0.841167       0.897617       0.975841       1.000000
     187.000000       1.064618       1.018305       1.019315       0.987397       1.081135       1.019423       1.001650       1.000000       0.957605       0.958968       0.954986       0.977391       0.840520       0.897359       0.975635       1.000000
     188.000000       1.064310       1.018252       1.019266       0.987101       1.080862       1.019366       1.001652       1.000000       0.956171       0.958318       0.954258       0.976830       0.839882       0.897107       0.975431       1.000000
     189.000000       1.063996       1.018195       1.019214       0.986802       1.080584       1.019307       1.001654       1.000000       0.954750       0.957670       0.953531       0.976263       0.839252       0.896859       0.975227       1.000000
     190.000000       1.063678       1.018135       1.019159       0.986501       1.080300       1.019247       1.001656       1.000000       0.953342       0.957023       0.952804       0.975690       0.838631       0.896615       0.975024       1.000000
     191.000000       1.063355       1.018072       1.019100       0.986197       1.080011       1.019186       1.001658       1.000000       0.951946       0.956377       0.952079       0.975111       0.838019       0.896376       0.974823       1.000000
     192.000000       1.063027       1.018006       1.019038       0.985891       1.079717       1.019123       1.001659       1.000000       0.950563       0.955734       0.951356       0.974527       0.837415       0.896142       0.974623       1.000000
     193.000000       1.062695       1.017936       1.018973       0.985583       1.079418       1.019060       1.001661       1.000000       0.949193       0.955092       0.950634       0.973936       0.836819       0.895911       0.974423       1.000000
     194.000000       1.062360       1.017864       1.018905       0.985272       1.079115       1.018996       1.001662       1.000000       0.947837       0.954453       0.949913       0.973341       0.836232       0.895685       0.974225       1.000000
     195.000000       1.062020       1.017788       1.018835       0.984960       1.078807       1.018930       1.001663       1.000000       0.946493       0.953815       0.949195       0.972740       0.835653       0.895463       0.974028       1.000000
     196.000000       1.061678       1.017710       1.018761       0.984645       1.078495       1.018864       1.001664       1.000000       0.945164       0.953181       0.948479       0.972133       0.835082       0.895246       0.973832       1.000000
     197.000000       1.061332       1.017629       1.018684       0.984328       1.078178       1.018796       1.001665       1.000000       0.943848       0.952549       0.947766       0.971522       0.834518       0.895032       0.973637       1.000000
     198.000000       1.060984       1.017546       1.018605       0.984009       1.077858       1.018728       1.001666       1.000000       0.942545       0.951919       0.947054       0.970905       0.833963       0.894822       0.973443       1.000000
     199.000000       1.060633       1.017459       1.018523       0.983689       1.077534       1.018659       1.001667       1.000000       0.941257       0.951292       0.946346       0.970284       0.833415       0.894617       0.973250       1.000000
     200.000000       1.060279       1.017371       1.018439       0.983367       1.077207       1.018589       1.001667       1.000000       0.939982       0.950669       0.945640       0.969658       0.832875       0.894415       0.973058       1.000000
